\cite{}
A : Total photon energy (MeV) : Uncertainty
  81.  1.9561  0.953
  82.  1.3041  0.7523
  83.  2.257  0.6019
  84.  3.8119  0.4765
  85.  2.884  0.5767
  86.  3.185  0.4514
  87.  4.0627  0.326
  88.  2.8589  0.301
  89.  4.163  0.2508
  90.  3.8119  0.2508
  91.  3.6364  0.2256
  92.  3.837  0.1755
  93.  3.3605  0.1756
  94.  4.0125  0.2007
  95.  3.837  0.1755
  96.  4.2132  0.2006
  97.  3.6614  0.2006
  98.  3.5361  0.1755
  99.  3.4859  0.1755
  100.  3.8871  0.1756
  101.  3.5361  0.2507
  102.  4.0125  0.2257
  103.  5.2414  0.3511
  104.  4.5392  0.326
  105.  4.0878  0.326
  106.  5.4922  0.5015
  107.  4.6143  0.5268
  108.  2.5078  0.9781
  126.  3.8871  0.9781
  127.  1.3793  0.7022
  128.  0.2257  0.4013
  129.  2.0815  0.4514
  130.  1.7806  0.3009
  131.  0.9781  0.326
  132.  2.4325  0.3261
  133.  3.0596  0.1755
  134.  2.6332  0.1756
  135.  2.9091  0.2257
  136.  2.9342  0.2758
  137.  2.8088  0.2257
  138.  2.4325  0.2007
  139.  2.6834  0.2006
  140.  2.7837  0.1755
  141.  3.2351  0.2256
  142.  2.8338  0.1505
  143.  3.21  0.2007
  144.  3.0094  0.2006
  145.  2.7335  0.2508
  146.  3.9122  0.2759
  147.  2.6082  0.3009
  148.  3.6364  0.3761
  149.  3.7116  0.5517
  150.  3.3354  0.6019
  151.  4.5392  0.5517
  152.  5.116  1.0282
  153.  4.6143  1.0282
